p1.4_RF
Counts
SciMode:IT1=100.00ms:NS1=50:IT2=100.00ms:NS2=50:Obj=10X UV:(5/1/2025 12:33:27 PM)
500.26	-0.9001
501.03	-2.6602
501.81	-1.7000
502.58	-2.0601
503.36	-1.5000
504.13	-1.6001
504.90	-2.8198
505.68	-1.1599
506.45	-1.7200
507.23	-2.4399
508.00	-1.4399
508.78	-7.7600
509.55	-0.5200
510.32	-1.9800
511.10	-1.6602
511.87	-1.9202
512.64	-0.9800
513.42	-2.0000
514.19	-1.8201
514.97	-2.3999
515.74	-1.4800
516.51	-2.2400
517.29	-6.3799
518.06	-1.7800
518.83	-1.6802
519.60	-1.3000
520.38	-2.6401
521.15	-1.7600
521.92	-1.1001
522.70	-2.3201
523.47	-0.8000
524.24	-1.5200
525.01	-1.3601
525.79	-1.2200
526.56	-2.5801
527.33	-0.1799
528.10	-0.1201
528.88	-3.0400
529.65	-0.8201
530.42	-1.6199
531.19	-2.2002
531.96	-2.0200
532.74	-2.4202
533.51	-0.2400
534.28	-2.7202
535.05	-2.2202
535.82	-1.3999
536.59	-2.4399
537.36	-1.2202
538.14	-2.1802
538.91	-1.6799
539.68	-0.8999
540.45	-1.7000
541.22	-1.3799
541.99	-0.8601
542.76	-2.0801
543.53	-1.6599
544.30	-2.2600
545.07	-1.9600
545.85	-2.9600
546.62	-1.0000
547.39	-1.9600
548.16	-2.3799
548.93	-0.7600
549.70	-1.0200
550.47	-1.3801
551.24	-1.9199
552.01	-1.7400
552.78	-2.0000
553.55	-1.9800
554.32	-2.1799
555.09	-1.3799
555.86	-0.7400
556.63	-1.4800
557.40	-2.1602
558.17	-2.0000
558.94	-1.0400
559.70	-1.9399
560.47	-4.9202
561.24	-1.0200
562.01	-1.4202
562.78	-2.7800
563.55	-0.9399
564.32	-1.5801
565.09	-1.4600
565.86	-2.1799
566.63	-1.2000
567.39	-1.0999
568.16	-2.2402
568.93	-0.9800
569.70	-1.4800
570.47	-2.4800
571.24	-1.9001
572.00	-1.2000
572.77	-1.3401
573.54	-1.7998
574.31	-1.3401
575.08	-1.4199
575.84	-1.6201
576.61	-0.8201
577.38	-3.0398
578.15	-2.3000
578.91	-1.8599
579.68	-0.9399
580.45	-1.4199
581.22	-1.5601
581.98	-2.6602
582.75	-2.2200
583.52	-2.3999
584.29	-1.3198
585.05	-2.1599
585.82	-1.7800
586.59	-0.9600
587.35	-0.7400
588.12	-2.0200
588.89	-2.0400
589.65	-7.3198
590.42	-1.0801
591.19	-2.2400
591.95	-1.2600
592.72	-1.4800
593.48	-2.0999
594.25	-2.0000
595.02	-1.0000
595.78	-1.2800
596.55	-1.5200
597.31	-1.3398
598.08	-1.2600
598.84	-1.2400
599.61	-2.2800
600.38	-2.2600
601.14	-0.7200
601.91	-2.1201
602.67	-1.6201
603.44	-1.8000
604.20	-2.2800
604.97	-2.1201
605.73	-0.5999
606.50	-2.1799
607.26	-1.2200
608.03	-2.2400
608.79	-1.1799
609.56	-1.3601
610.32	-2.1401
611.08	-1.9399
611.85	-1.5400
612.61	-1.6199
613.38	-0.5801
614.14	-2.4800
614.91	-1.7200
615.67	-1.6199
616.43	-1.2400
617.20	-1.1599
617.96	-2.5398
618.73	-1.9399
619.49	-1.8000
620.25	-1.2800
621.02	-1.6001
621.78	-1.4800
622.54	-1.7200
623.31	-1.3401
624.07	-1.3799
624.83	-1.3799
625.60	-2.0601
626.36	-1.5000
627.12	-1.7000
627.88	-2.4202
628.65	-0.7998
629.41	-1.7400
630.17	-1.6802
630.93	-1.3999
631.70	-2.4600
632.46	-0.6401
633.22	-1.8401
633.98	-1.7800
634.75	-2.1401
635.51	-1.9600
636.27	-1.7800
637.03	-1.7800
637.79	-1.9600
638.56	-1.2800
639.32	5.1199
640.08	-0.9399
640.84	-0.9399
641.60	-2.0999
642.36	-2.1602
643.13	-0.4199
643.89	-0.7600
644.65	-1.8201
645.41	-2.4800
646.17	-0.9399
646.93	-1.3401
647.69	-2.3000
648.45	-0.7600
649.21	-1.2000
649.97	-1.7200
650.73	-0.1001
651.50	-0.4199
652.26	-0.6799
653.02	-2.3201
653.78	-0.4199
654.54	-1.0000
655.30	-0.5000
656.06	-0.1201
656.82	-0.3601
657.58	0.8201
658.34	1.4600
659.10	1.6399
659.86	1.2200
660.62	2.3201
661.37	0.9600
662.13	1.2798
662.89	6.5398
663.65	2.0200
664.41	1.4202
665.17	1.9800
665.93	2.1201
666.69	1.7000
667.45	2.7600
668.21	3.5601
668.97	5.3799
669.72	5.5798
670.48	4.9199
671.24	5.7400
672.00	7.7600
672.76	5.5000
673.52	5.2202
674.28	5.2400
675.03	6.0400
675.79	5.9001
676.55	6.1599
677.31	6.8000
678.07	4.5801
678.82	5.9199
679.58	6.1199
680.34	4.9800
681.10	5.5801
681.85	6.2400
682.61	6.0400
683.37	5.5400
684.13	5.6201
684.88	5.9602
685.64	5.2000
686.40	5.6201
687.15	6.4800
687.91	7.1199
688.67	8.2202
689.42	9.6001
690.18	13.7400
690.94	21.5000
691.69	46.2600
692.45	112.3599
693.21	192.7598
693.96	249.3799
694.72	232.7998
695.48	143.1399
696.23	78.4202
696.99	56.8000
697.74	53.9600
698.50	53.2200
699.25	52.4800
700.01	54.6201
700.77	55.0801
701.52	58.3000
702.28	54.3198
703.03	42.8801
703.79	41.1401
704.54	44.6599
705.30	45.5000
706.05	41.8601
706.81	35.9199
707.56	32.8999
708.32	30.5798
709.07	27.4399
709.83	26.8999
710.58	25.5000
711.34	23.8198
712.09	24.9001
712.84	26.0000
713.60	27.2600
714.35	27.9800
715.11	27.7600
715.86	28.6799
716.61	28.8799
717.37	29.7600
718.12	28.7800
718.88	27.8201
719.63	27.7000
720.38	23.7800
721.14	23.2200
721.89	22.2400
722.64	19.5000
723.40	18.8398
724.15	18.5000
724.90	18.6201
725.66	17.7400
726.41	17.9399
727.16	17.8000
727.91	18.1001
728.67	18.0999
729.42	19.8401
730.17	17.9199
730.92	19.1799
731.68	18.0000
732.43	19.2400
733.18	16.8000
733.93	16.3601
734.69	16.8401
735.44	15.3999
736.19	17.5801
736.94	16.3000
737.69	15.9800
738.44	16.5400
739.20	16.4600
739.95	18.1599
740.70	17.9602
741.45	19.2600
742.20	20.4802
742.95	21.7600
743.70	22.7400
744.46	23.6199
745.21	24.9199
745.96	24.3599
746.71	24.6201
747.46	24.1799
748.21	23.0000
748.96	21.2800
749.71	23.0400
750.46	24.4199
751.21	23.6802
751.96	23.8599
752.71	28.5601
753.46	30.0200
754.21	29.7400
754.96	29.6001
755.71	30.9402
756.46	32.4800
757.21	31.9600
757.96	33.0200
758.71	34.1399
759.46	34.1401
760.21	37.2400
760.96	37.1399
761.71	37.0598
762.46	36.2600
763.21	38.5200
763.95	35.6602
764.70	36.9202
765.45	37.6001
766.20	37.3601
766.95	40.1599
767.70	40.0801
768.45	39.1599
769.20	39.8799
769.94	39.1399
770.69	41.0200
771.44	45.3000
772.19	48.4202
772.94	49.4800
773.68	50.8601
774.43	50.3000
775.18	50.1199
775.93	49.4199
776.68	48.5000
777.42	45.3601
778.17	43.2998
778.92	41.3999
779.66	37.3601
780.41	36.5601
781.16	29.1799
781.91	32.7400
782.65	31.6201
783.40	30.6201
784.15	31.2200
784.89	30.5000
785.64	29.8000
786.39	29.6599
787.13	30.5000
787.88	30.3401
788.63	30.4199
789.37	30.6602
790.12	32.3198
790.86	30.8599
791.61	30.9199
792.36	30.9600
793.10	30.6799
793.85	29.3398
794.59	28.5798
795.34	27.2000
796.09	26.8000
796.83	24.9199
797.58	24.1001
798.32	23.3599
799.07	21.9199
799.81	21.0398
